Patient Name         : HERZOG, DALIA
Patient ID           : 5529194-2
Comment              : DVHs for one plan
Date                 : Monday, October 14, 2024 1:17:48 PM
Exported by          : Orit Furman
Type                 : Cumulative Dose Volume Histogram
Description          : The cumulative DVH displays the percentage (relative)
                       or volume (absolute) of structures that receive a dose
                       equal to or greater than a given dose.

Plan: 14.2.19
Course: 14.2.19
Plan Status: Treatment Approved Thursday, February 14, 2019 11:30:05 AM by natans
Total dose [Gy]: 7.000
% for dose (%): 100.0

Structure: CTV 2
Approval Status: Approved
Plan: 14.2.19
Course: 14.2.19
Volume [cm³]: 354.8
Dose Cover.[%]: 100.0
Sampling Cover.[%]: 100.0
Min Dose [Gy]: 3.522
Max Dose [Gy]: 7.630
Mean Dose [Gy]: 7.156
Modal Dose [Gy]: 7.331
Median Dose [Gy]: 7.241
STD [Gy]: 0.348
Equiv. Sphere Diam. [cm]: 8.8
Conformity Index: N/A
Gradient Measure [cm]: N/A
Dose Level [Gy]: 
RTOG CI: 
Paddick CI: 
GI: 
ICRU83 HI: 
: 

        Dose [Gy]   Relative dose [%]    Structure Volume [cm³]
                0                   0                    354.79
              0.1             1.42857                    354.79
              0.2             2.85714                    354.79
              0.3             4.28571                    354.79
              0.4             5.71429                    354.79
              0.5             7.14286                    354.79
              0.6             8.57143                    354.79
              0.7                  10                    354.79
              0.8             11.4286                    354.79
              0.9             12.8571                    354.79
                1             14.2857                    354.79
              1.1             15.7143                    354.79
              1.2             17.1429                    354.79
              1.3             18.5714                    354.79
              1.4                  20                    354.79
              1.5             21.4286                    354.79
              1.6             22.8571                    354.79
              1.7             24.2857                    354.79
              1.8             25.7143                    354.79
              1.9             27.1429                    354.79
                2             28.5714                    354.79
              2.1                  30                    354.79
              2.2             31.4286                    354.79
              2.3             32.8571                    354.79
              2.4             34.2857                    354.79
              2.5             35.7143                    354.79
              2.6             37.1429                    354.79
              2.7             38.5714                    354.79
              2.8                  40                    354.79
              2.9             41.4286                    354.79
                3             42.8571                    354.79
              3.1             44.2857                    354.79
              3.2             45.7143                    354.79
              3.3             47.1429                    354.79
              3.4             48.5714                    354.79
              3.5                  50                    354.79
              3.6             51.4286                   354.789
              3.7             52.8571                   354.786
              3.8             54.2857                   354.777
              3.9             55.7143                   354.766
                4             57.1429                   354.754
              4.1             58.5714                   354.741
              4.2                  60                    354.72
              4.3             61.4286                   354.703
              4.4             62.8571                   354.683
              4.5             64.2857                   354.652
              4.6             65.7143                   354.595
              4.7             67.1429                   354.521
              4.8             68.5714                   354.388
              4.9                  70                   354.247
                5             71.4286                   354.041
              5.1             72.8571                   353.834
              5.2             74.2857                   353.463
              5.3             75.7143                   353.092
              5.4             77.1429                   352.693
              5.5             78.5714                    352.18
              5.6                  80                   351.313
              5.7             81.4286                   350.602
              5.8             82.8571                   349.533
              5.9             84.2857                   348.382
                6             85.7143                   347.297
              6.1             87.1429                   345.658
              6.2             88.5714                   344.464
              6.3                  90                   342.586
              6.4             91.4286                   340.617
              6.5             92.8571                   337.979
              6.6             94.2857                   335.188
              6.7             95.7143                   331.591
              6.8             97.1429                   325.444
              6.9             98.5714                   313.842
                7                 100                   287.258
              7.1             101.429                   247.713
              7.2             102.857                    199.69
              7.3             104.286                   138.771
              7.4             105.714                   59.1525
              7.5             107.143                   11.9342
              7.6             108.571                  0.127315

Structure: External
Approval Status: Approved
Plan: 14.2.19
Course: 14.2.19
Volume [cm³]: 14929.5
Dose Cover.[%]: 100.0
Sampling Cover.[%]: 100.0
Min Dose [Gy]: 0.000
Max Dose [Gy]: 7.631
Mean Dose [Gy]: 0.954
Modal Dose [Gy]: 0.001
Median Dose [Gy]: 0.110
STD [Gy]: 1.731
Equiv. Sphere Diam. [cm]: 30.6
Conformity Index: N/A
Gradient Measure [cm]: N/A
Dose Level [Gy]: 
RTOG CI: 
Paddick CI: 
GI: 
ICRU83 HI: 
: 

        Dose [Gy]   Relative dose [%]    Structure Volume [cm³]
                0                   0                   14929.5
              0.1             1.42857                   7727.31
              0.2             2.85714                   5978.46
              0.3             4.28571                   5201.28
              0.4             5.71429                   4785.33
              0.5             7.14286                   4533.37
              0.6             8.57143                   4355.21
              0.7                  10                   4208.93
              0.8             11.4286                   4088.81
              0.9             12.8571                   3986.13
                1             14.2857                   3899.24
              1.1             15.7143                   3820.46
              1.2             17.1429                   3743.16
              1.3             18.5714                   3659.27
              1.4                  20                   3555.02
              1.5             21.4286                   3423.66
              1.6             22.8571                   3249.88
              1.7             24.2857                   3067.08
              1.8             25.7143                   2905.77
              1.9             27.1429                   2747.49
                2             28.5714                   2596.55
              2.1                  30                   2466.42
              2.2             31.4286                   2347.69
              2.3             32.8571                   2237.99
              2.4             34.2857                   2134.45
              2.5             35.7143                   2029.41
              2.6             37.1429                   1924.72
              2.7             38.5714                   1825.45
              2.8                  40                   1723.69
              2.9             41.4286                   1627.21
                3             42.8571                   1536.02
              3.1             44.2857                   1450.88
              3.2             45.7143                    1372.6
              3.3             47.1429                   1301.47
              3.4             48.5714                   1238.46
              3.5                  50                   1183.59
              3.6             51.4286                   1136.71
              3.7             52.8571                   1095.77
              3.8             54.2857                   1060.58
              3.9             55.7143                   1030.42
                4             57.1429                   1005.31
              4.1             58.5714                   983.619
              4.2                  60                    963.26
              4.3             61.4286                   943.867
              4.4             62.8571                   923.364
              4.5             64.2857                   905.103
              4.6             65.7143                   888.012
              4.7             67.1429                    872.15
              4.8             68.5714                   856.225
              4.9                  70                   839.526
                5             71.4286                   825.402
              5.1             72.8571                   812.838
              5.2             74.2857                   800.894
              5.3             75.7143                   788.243
              5.4             77.1429                   775.791
              5.5             78.5714                   763.184
              5.6                  80                   748.932
              5.7             81.4286                    735.43
              5.8             82.8571                    723.55
              5.9             84.2857                   709.361
                6             85.7143                   696.792
              6.1             87.1429                   683.213
              6.2             88.5714                   667.119
              6.3                  90                   645.988
              6.4             91.4286                   627.205
              6.5             92.8571                   607.151
              6.6             94.2857                    584.22
              6.7             95.7143                   554.716
              6.8             97.1429                    515.56
              6.9             98.5714                   468.258
                7                 100                   402.532
              7.1             101.429                   330.679
              7.2             102.857                   257.759
              7.3             104.286                   175.343
              7.4             105.714                   78.1088
              7.5             107.143                   16.8468
              7.6             108.571                  0.279761

